# Raman data in two columns
# Material is single layer graphene on silicon oxide
# Measured by M Craciun, Exeter University
# 'Raman shift / cm$^{-1}', 'Intensity /  a.u.')
3217.13	7434.03
3216.43	7451.75
3215.72	7443.65
3215.02	7534.78
3214.31	7275.06
3213.61	7419.34
3212.9	7287.25
3212.19	7427.94
3211.49	7256.93
3210.78	7808.36
3210.08	7534.66
3209.37	7515.93
3208.66	7638.8
3207.96	7496.18
3207.25	7321.76
3206.54	7455.21
3205.84	7532.03
3205.13	7368.28
3204.42	7466.31
3203.72	7553.7
3203.01	7439.52
3202.3	7406.68
3201.6	7433.95
3200.89	7429.4
3200.18	7753.51
3199.47	7540.44
3198.77	7574.74
3198.06	7432.41
3197.35	7523.23
3196.64	7610.49
3195.93	7319.9
3195.23	7562.51
3194.52	7617.96
3193.81	7786.34
3193.1	7344.14
3192.39	7621.9
3191.68	7451.5
3190.98	7570.43
3190.27	7569.39
3189.56	7554.25
3188.85	7687.22
3188.14	7587.45
3187.43	7713.32
3186.72	7560.7
3186.01	7506.8
3185.3	7604.45
3184.59	7490.66
3183.88	7634.08
3183.17	7583.72
3182.46	7783.43
3181.75	7528.83
3181.04	7503.15
3180.33	7674.63
3179.62	7606.7
3178.91	7640.86
3178.2	7562.4
3177.49	7596.55
3176.78	7482.93
3176.07	7538.19
3175.36	7523.09
3174.65	7609.98
3173.94	7640.59
3173.23	7449.7
3172.52	7659.59
3171.81	7746.41
3171.09	7615.33
3170.38	7709.16
3169.67	7792.42
3168.96	7654.36
3168.25	7530.38
3167.54	7810.3
3166.82	7654.74
3166.11	7751.99
3165.4	7747.43
3164.69	7756.9
3163.97	7580.37
3163.26	7565.29
3162.55	7736.18
3161.84	7700.04
3161.12	7698.99
3160.41	7561.16
3159.7	7479.48
3158.99	7608.18
3158.27	7733.34
3157.56	7550.02
3156.85	7938
3156.13	7677.61
3155.42	7617
3154.7	7934.75
3153.99	7691.98
3153.28	7627.89
3152.56	7935
3151.85	7674.82
3151.14	7789.3
3150.42	7753.23
3149.71	7633.18
3148.99	7520.15
3148.28	7659.08
3147.56	7633.54
3146.85	7691.97
3146.13	7711.9
3145.42	7745.82
3144.7	7702.8
3143.99	7799.64
3143.27	7910.43
3142.56	7668.19
3141.84	7688.11
3141.13	7903.69
3140.41	7853.7
3139.7	7821.19
3138.98	7481.33
3138.26	7784.13
3137.55	7744.66
3136.83	7806.44
3136.12	7732.07
3135.4	7905.53
3134.68	7848.61
3133.97	7714.94
3133.25	7888.33
3132.53	7820.97
3131.82	7840.83
3131.1	7906.02
3130.38	7814.28
3129.67	8036.35
3128.95	7773.8
3128.23	7894.73
3127.51	7705.46
3126.8	7979.68
3126.08	7867.1
3125.36	7695.33
3124.64	7812.7
3123.93	7818.6
3123.21	7814.05
3122.49	7955.73
3121.77	7697.03
3121.05	7977.92
3120.34	7893.31
3119.62	7961.82
3118.9	7786.77
3118.18	7625.68
3117.46	7993.34
3116.74	7884.43
3116.02	7890.31
3115.3	7844.03
3114.59	7915.97
3113.87	8126.92
3113.15	7969.41
3112.43	7874.49
3111.71	7849.1
3110.99	7907.08
3110.27	7881.69
3109.55	7731.26
3108.83	8028.86
3108.11	7722.2
3107.39	7971.11
3106.67	8035.98
3105.95	8062.65
3105.23	7825.56
3104.51	8063.91
3103.79	7976.07
3103.07	7843.17
3102.35	7828.22
3101.62	8083.78
3100.9	7957.84
3100.18	8140.51
3099.46	8104.73
3098.74	8120.95
3098.02	7915.37
3097.3	8149.91
3096.58	8055.26
3095.85	8161.54
3095.13	8243.56
3094.41	7993.08
3093.69	8116.64
3092.97	8001.28
3092.24	8052.11
3091.52	7940.25
3090.8	7890.71
3090.08	8104.17
3089.35	8123.82
3088.63	8115.79
3087.91	8190.78
3087.19	8075.53
3086.46	8216.21
3085.74	8069.87
3085.02	8096.42
3084.29	8171.36
3083.57	8080.38
3082.85	8307.35
3082.12	8095.45
3081.4	8187.61
3080.68	8165.77
3079.95	8023.05
3079.23	8194.62
3078.5	7975.97
3077.78	8233.8
3077.06	8211.96
3076.33	8238.45
3075.61	8313.25
3074.88	8163.74
3074.16	8048.77
3073.43	8402.97
3072.71	8063.82
3071.98	8186.86
3071.26	8199.53
3070.53	8084.64
3069.81	8317.94
3069.08	8113.45
3068.36	8257.08
3067.63	8245.61
3066.91	8158.35
3066.18	8195.13
3065.45	8194.01
3064.73	8347.86
3064	8391.48
3063.28	8300.82
3062.55	8430.5
3061.82	8284.78
3061.1	8314.62
3060.37	8172.4
3059.64	8209.13
3058.92	8252.73
3058.19	8323.83
3057.46	8277.98
3056.74	8500.36
3056.01	8430.44
3055.28	8432.72
3054.55	8338.76
3053.83	8402.92
3053.1	8429.26
3052.37	8184.16
3051.64	8244.88
3050.92	8449.84
3050.19	8404.04
3049.46	8358.25
3048.73	8487.58
3048	8517.31
3047.28	8389.14
3046.55	8374.27
3045.82	8349.1
3045.09	8334.23
3044.36	8442.87
3043.63	8355.96
3042.9	8433.7
3042.17	8501.14
3041.45	8599.41
3040.72	8413.1
3039.99	8336.54
3039.26	8688.42
3038.53	8426.78
3037.8	8483.88
3037.07	8294.29
3036.34	8409.62
3035.61	8542.05
3034.88	8609.37
3034.15	8543.13
3033.42	8538.54
3032.69	8444.94
3031.96	8611.5
3031.23	8343.39
3030.5	8578.35
3029.77	8454.01
3029.04	8511
3028.3	8639.81
3027.57	8498.41
3026.84	8558.8
3026.11	8308.05
3025.38	8669.27
3024.65	8592.88
3023.92	8642.97
3023.19	8631.54
3022.45	8609.86
3021.72	8642.84
3020.99	8481.12
3020.26	8534.6
3019.53	8543.68
3018.79	8607.38
3018.06	8336.51
3017.33	8577.72
3016.6	8672.1
3015.86	8616.32
3015.13	8427.48
3014.4	8825.47
3013.67	8585.49
3012.93	8601.37
3012.2	8661.57
3011.47	8813.82
3010.73	8570.56
3010	8535.3
3009.27	8636.38
3008.53	8914.63
3007.8	8691.94
3007.06	8956.48
3006.33	8754.28
3005.6	8742.86
3004.86	8728.04
3004.13	8798.35
3003.39	8531.6
3002.66	8727.86
3001.92	8685.82
3001.19	8551.91
3000.46	8581.37
2999.72	8818.34
2998.99	8776.31
2998.25	8567.64
2997.52	8797.71
2996.78	8660.5
2996.04	8778.31
2995.31	8705.72
2994.57	8592.36
2993.84	8812.08
2993.1	8838.06
2992.37	8830.05
2991.63	8862.81
2990.89	8742.72
2990.16	8724.54
2989.42	8692.79
2988.69	8586.35
2987.95	8727.75
2987.21	9042.22
2986.48	8918.8
2985.74	8805.6
2985	9014.75
2984.27	8955.85
2983.53	8707.01
2982.79	8963.57
2982.05	8836.87
2981.32	9032.31
2980.58	8831.06
2979.84	8873.92
2979.1	8943.87
2978.37	8905.37
2977.63	8975.3
2976.89	8831.79
2976.15	8854.29
2975.41	8863.24
2974.68	8929.75
2973.94	8959
2973.2	8724.18
2972.46	8875.31
2971.72	8857.17
2970.98	8876.26
2970.24	8810.76
2969.51	8938.11
2968.77	9197.34
2968.03	8719.2
2967.29	8819.46
2966.55	8994.07
2965.81	8715.62
2965.07	8731.32
2964.33	9098.53
2963.59	9070.25
2962.85	8940.61
2962.11	8939.38
2961.37	8928.02
2960.63	8970.71
2959.89	9064.03
2959.15	9052.66
2958.41	9051.42
2957.67	9087.31
2956.93	9180.57
2956.19	8976.83
2955.45	9016.09
2954.7	9099.2
2953.96	9070.97
2953.22	9127.07
2952.48	9142.68
2951.74	9107.7
2951	8853.59
2950.26	9091.72
2949.51	9228.67
2948.77	9315.03
2948.03	8986.9
2947.29	9346.17
2946.55	9206.77
2945.8	9289.71
2945.06	9210.98
2944.32	8950.43
2943.58	9013.18
2942.83	9163.43
2942.09	9256.42
2941.35	9224.86
2940.61	9156.3
2939.86	9356.92
2939.12	8918.3
2938.38	9250.08
2937.63	9050.38
2936.89	9267.72
2936.15	9326.97
2935.4	9251.73
2934.66	9247.1
2933.92	9091.23
2933.17	9281.53
2932.43	9303.78
2931.68	9050.54
2930.94	9153.43
2930.19	9101.8
2929.45	9224.8
2928.71	9163.1
2927.96	9269.27
2927.22	9086.73
2926.47	9333.85
2925.73	9067.46
2924.98	9140.04
2924.24	9343.43
2923.49	9150.95
2922.75	9485.09
2922	9275.87
2921.25	9408.73
2920.51	9182.81
2919.76	9040.76
2919.02	9270.79
2918.27	9360
2917.52	9653.58
2916.78	9511.55
2916.03	9386.3
2915.29	9475.44
2914.54	9450.7
2913.79	9308.77
2913.05	9468.2
2912.3	9456.86
2911.55	9412.05
2910.81	9293.62
2910.06	9386.04
2909.31	9501.86
2908.56	9356.71
2907.82	9325.32
2907.07	9206.99
2906.32	9503.33
2905.57	9441.85
2904.83	9473.98
2904.08	9512.79
2903.33	9394.52
2902.58	9530.23
2901.83	9341.82
2901.08	9340.54
2900.34	9559.71
2899.59	9545.04
2898.84	9373.43
2898.09	9495.68
2897.34	9314.1
2896.59	9456.36
2895.84	9461.74
2895.09	9704.04
2894.35	9692.7
2893.6	9918.22
2892.85	9459.88
2892.1	9598.66
2891.35	9523.98
2890.6	9726.06
2889.85	9738.06
2889.1	9423.39
2888.35	9635.4
2887.6	9660.74
2886.85	9522.8
2886.1	9738.05
2885.35	9626.79
2884.6	9645.45
2883.84	9534.23
2883.09	9626.15
2882.34	9748.01
2881.59	9683.43
2880.84	9722.04
2880.09	9614.21
2879.34	9619.55
2878.59	9661.48
2877.84	9543.73
2877.08	9964.83
2876.33	9750.62
2875.58	9672.8
2874.83	9518.54
2874.08	9786.5
2873.32	9904.81
2872.57	9704.05
2871.82	9775.82
2871.07	9904.05
2870.31	9673.48
2869.56	9658.87
2868.81	9611.05
2868.06	9951.75
2867.3	9857.42
2866.55	9819.55
2865.8	9914.46
2865.04	9833.45
2864.29	9861.96
2863.54	9784.3
2862.78	9885.79
2862.03	9930.87
2861.28	9843.28
2860.52	9822.03
2859.77	9973.2
2859.01	9948.63
2858.26	9943.95
2857.5	9882.92
2856.75	9977.67
2856	9731.11
2855.24	10061.1
2854.49	9993.43
2853.73	9786.72
2852.98	9907.9
2852.22	9893.3
2851.47	10074
2850.71	10046.2
2849.96	9975.27
2849.2	9841.54
2848.44	9744.23
2847.69	9938.08
2846.93	9959.87
2846.18	9915.51
2845.42	9914.15
2844.66	9912.79
2843.91	10139.5
2843.15	9916.67
2842.4	9988.02
2841.64	10165.1
2840.88	9899.37
2840.13	10043.4
2839.37	9705.06
2838.61	10053.8
2837.86	10181.2
2837.1	10212.9
2836.34	10086
2835.58	10196.9
2834.83	10139.3
2834.07	10022.4
2833.31	10486.3
2832.55	10128.6
2831.8	10292.1
2831.04	10148.9
2830.28	10002.4
2829.52	10258.2
2828.76	10293.1
2828	10331.2
2827.25	10310
2826.49	10407.5
2825.73	10050.2
2824.97	9828.03
2824.21	10320.8
2823.45	10497.3
2822.69	10159.9
2821.93	10138.7
2821.17	10236.1
2820.42	10537.6
2819.66	10414.3
2818.9	10143
2818.14	10227.2
2817.38	10311.3
2816.62	10194.8
2815.86	10160.5
2815.1	10182.1
2814.34	10305.7
2813.58	10241.8
2812.82	10273.3
2812.05	10196.2
2811.29	10464.3
2810.53	10272.3
2809.77	10399
2809.01	10483
2808.25	10452
2807.49	10424.3
2806.73	10396.6
2805.97	10464.1
2805.2	10331.4
2804.44	10277.4
2803.68	10525.5
2802.92	10589.6
2802.16	10256.8
2801.4	10376.8
2800.63	10391.7
2799.87	10587.1
2799.11	10552.9
2798.35	10358
2797.58	10546.7
2796.82	10404.3
2796.06	10366.8
2795.3	10375.2
2794.53	10534.3
2793.77	10392
2793.01	10633
2792.24	10441.6
2791.48	10522
2790.72	10487.8
2789.95	10650
2789.19	10560.2
2788.42	10529.3
2787.66	10671.8
2786.9	10431.5
2786.13	10547.9
2785.37	10481
2784.6	10754.3
2783.84	10556.6
2783.08	10699
2782.31	10645.2
2781.55	10768
2780.78	10518.1
2780.02	10722.5
2779.25	10560.9
2778.49	10559.5
2777.72	10646.2
2776.95	10765.6
2776.19	10509.4
2775.42	10798.6
2774.66	10855.9
2773.89	10864.2
2773.13	10732.1
2772.36	10854.7
2771.59	10598.6
2770.83	10633.1
2770.06	10625.1
2769.3	10483.4
2768.53	10827.6
2767.76	11103.3
2767	10824.7
2766.23	10709.1
2765.46	10736.9
2764.69	10751.7
2763.93	10603.6
2763.16	10683.6
2762.39	10884.1
2761.62	10736.1
2760.86	11011.4
2760.09	10922
2759.32	10936.8
2758.55	10938.5
2757.79	11080.2
2757.02	10792.3
2756.25	10908
2755.48	10968.3
2754.71	11074.1
2753.94	10874.2
2753.18	10937.7
2752.41	10864.7
2751.64	10807.9
2750.87	10865
2750.1	11113.8
2749.33	10982.2
2748.56	10980.7
2747.79	11105.9
2747.02	11149.9
2746.25	11021.7
2745.48	10974.7
2744.71	10924.4
2743.94	11010.6
2743.17	11067.5
2742.4	11007.6
2741.63	11145.6
2740.86	11014.3
2740.09	10912.2
2739.32	11274
2738.55	11201.1
2737.78	11241.8
2737.01	11366.7
2736.24	11173.8
2735.47	11376.5
2734.7	11196.7
2733.92	10971.5
2733.15	11183.9
2732.38	11247.1
2731.61	11258.5
2730.84	11172.8
2730.07	11462.7
2729.29	11613.4
2728.52	11368.9
2727.75	11435.3
2726.98	11242.8
2726.21	11361
2725.43	11501.8
2724.66	11710.6
2723.89	11372.5
2723.11	11435.6
2722.34	11618.4
2721.57	11225.5
2720.8	11521.4
2720.02	11461.6
2719.25	11463.3
2718.48	11636.3
2717.7	11654
2716.93	11516.7
2716.15	11893.2
2715.38	11755.8
2714.61	11621.8
2713.83	11797.8
2713.06	12067.4
2712.28	12010.9
2711.51	11915.6
2710.74	12123.8
2709.96	12167.3
2709.19	12055.9
2708.41	12254.3
2707.64	12007.4
2706.86	12273.5
2706.09	12149.3
2705.31	12360.4
2704.54	12487.7
2703.76	12544
2702.98	12606.7
2702.21	12501.9
2701.43	12780.5
2700.66	12917.3
2699.88	13025
2699.1	12775.2
2698.33	12886.2
2697.55	13283.7
2696.78	13195
2696	13264
2695.22	13242.8
2694.45	13508.1
2693.67	13766.9
2692.89	13839.1
2692.11	13920.8
2691.34	14221.3
2690.56	14245
2689.78	14255.9
2689.01	14379.4
2688.23	14406.3
2687.45	14555.4
2686.67	14710.9
2685.89	14930.6
2685.12	15352.7
2684.34	15257.4
2683.56	15544.4
2682.78	15362.4
2682	15604.4
2681.22	15685.7
2680.45	15757.4
2679.67	16172.5
2678.89	16305.1
2678.11	16302.9
2677.33	16406.5
2676.55	16574.3
2675.77	16700.3
2674.99	16803.9
2674.21	16759.9
2673.43	16975.6
2672.65	17133.6
2671.87	17073.5
2671.09	16923.7
2670.31	17408.5
2669.53	17425.3
2668.75	17240.3
2667.97	17202.7
2667.19	17495
2666.41	17348.5
2665.63	17531.8
2664.85	17484.6
2664.07	17098
2663.29	17242.9
2662.51	17496.5
2661.73	17254.1
2660.94	17069.4
2660.16	16910.3
2659.38	16600.9
2658.6	16969.6
2657.82	16621.9
2657.04	17102.4
2656.25	16329.6
2655.47	16081.2
2654.69	16430.5
2653.91	16108.7
2653.12	16263.1
2652.34	15998.9
2651.56	15805
2650.78	15815.6
2649.99	15644.2
2649.21	15511.1
2648.43	15151.4
2647.64	15261
2646.86	15198.3
2646.08	15062.2
2645.29	15111.1
2644.51	14978.3
2643.73	14529.6
2642.94	14623.3
2642.16	14353.4
2641.37	14348.2
2640.59	14601.3
2639.81	14424
2639.02	14237.1
2638.24	14216
2637.45	14239.6
2636.67	13976.4
2635.88	13936.2
2635.1	13733.6
2634.31	13763.6
2633.53	13214
2632.74	13466.9
2631.96	13535.1
2631.17	13491.8
2630.39	13451.8
2629.6	13297.2
2628.81	13308.1
2628.03	13198.1
2627.24	13250.3
2626.46	13337.6
2625.67	13113.1
2624.88	12961.9
2624.1	13100
2623.31	12901.1
2622.52	12873.9
2621.74	13021.5
2620.95	12953
2620.16	12906.7
2619.38	12857.3
2618.59	12985.7
2617.8	12936.3
2617.01	12839.3
2616.23	12637.5
2615.44	12727.8
2614.65	12868.9
2613.86	12879.8
2613.08	12966.8
2612.29	12762
2611.5	12455.8
2610.71	12787
2609.92	12731.4
2609.13	12755
2608.35	12807.1
2607.56	12504.2
2606.77	12692.7
2605.98	12792.3
2605.19	12796.9
2604.4	12658.9
2603.61	12913.7
2602.82	12560.4
2602.03	12634.6
2601.24	12651.9
2600.45	12647
2599.66	12452.2
2598.87	12422
2598.08	12550
2597.29	12504
2596.5	12533.9
2595.71	12646
2594.92	12824.5
2594.13	12474.9
2593.34	12615.5
2592.55	12873
2591.76	12567.7
2590.97	12461.7
2590.18	12576.9
2589.39	12467.7
2588.59	12649.3
2587.8	12603.3
2587.01	12642.6
2586.22	12849.3
2585.43	12594.9
2584.64	12609
2583.84	12566.2
2583.05	12570.8
2582.26	12250.3
2581.47	12740.8
2580.68	12776.9
2579.88	12721.5
2579.09	12540
2578.3	12658.1
2577.5	12710
2576.71	12547.4
2575.92	12772.6
2575.13	12774
2574.33	12854.2
2573.54	12761
2572.74	12513.5
2571.95	12486.6
2571.16	12831.3
2570.36	12650.1
2569.57	12572.8
2568.78	12857.5
2567.98	12616.5
2567.19	12816.2
2566.39	12603.6
2565.6	12677.4
2564.8	12703.9
2564.01	12415.9
2563.21	12631.2
2562.42	12774.1
2561.62	12703.2
2560.83	12811.5
2560.03	12856.8
2559.24	12987.1
2558.44	12891
2557.65	12691.3
2556.85	13000.5
2556.06	12882.5
2555.26	12701.7
2554.46	12750.2
2553.67	12531.8
2552.87	12944.5
2552.07	12770
2551.28	13160.6
2550.48	12779.1
2549.68	12814.9
2548.89	12832
2548.09	12745.5
2547.29	13029.2
2546.5	13005.4
2545.7	13053.8
2544.9	13180.6
2544.1	12874.7
2543.31	13086
2542.51	12861.7
2541.71	13016.6
2540.91	13111.9
2540.12	13022.4
2539.32	12936
2538.52	12974.9
2537.72	13273.8
2536.92	13071.5
2536.12	12769.2
2535.32	12848.8
2534.53	13300.8
2533.73	12779.6
2532.93	12915.5
2532.13	13063.8
2531.33	12755.5
2530.53	12900.7
2529.73	13124.1
2528.93	13294.2
2528.13	13073.6
2527.33	12737.3
2526.53	13235.6
2525.73	12936.9
2524.93	13047.6
2524.13	13039.5
2523.33	13222
2522.53	12961
2521.73	13090.3
2520.93	13141.6
2520.13	13102.3
2519.33	13294
2518.53	13310.9
2517.72	13518.2
2516.92	13478.9
2516.12	13255.5
2515.32	13465.8
2514.52	13336
2513.72	13178.3
2512.92	13319.9
2512.11	13364.8
2511.31	13010.7
2510.51	13258.2
2509.71	13365.5
2508.9	13186
2508.1	13371.1
2507.3	13169.9
2506.5	13202.4
2505.69	13502.6
2504.89	13304.6
2504.09	13402.4
2503.29	13416.1
2502.48	13554.3
2501.68	13493.3
2500.88	13600.3
2500.07	13579.7
2499.27	13441
2498.46	13448.5
2497.66	13334.7
2496.86	13401.2
2496.05	13570.4
2495.25	13674.2
2494.44	13585.2
2493.64	13272.6
2492.83	13286.3
2492.03	13719.4
2491.22	13596.4
2490.42	13600.7
2489.61	13502.5
2488.81	13522.4
2488	13300.1
2487.2	13236.2
2486.39	13547.8
2485.59	13449.8
2484.78	13497.5
2483.98	13781.1
2483.17	13608.6
2482.36	13647
2481.56	13573.8
2480.75	13816.9
2479.95	13566.9
2479.14	13915.3
2478.33	13594.2
2477.53	13722.5
2476.72	13794.9
2475.91	13749.6
2475.11	13654.8
2474.3	13643.6
2473.49	13957.6
2472.68	13813.2
2471.88	13817.5
2471.07	13964.2
2470.26	13758
2469.45	13718.9
2468.64	13921.3
2467.84	13971.9
2467.03	13787.5
2466.22	13801
2465.41	13792.9
2464.6	13948.7
2463.79	13786
2462.99	13960.3
2462.18	13884.2
2461.37	13829.8
2460.56	14164.7
2459.75	14141.1
2458.94	14095.9
2458.13	13945.6
2457.32	13990
2456.51	13954.1
2455.7	14365.9
2454.89	13876.2
2454.08	13892.8
2453.27	14147
2452.46	14428.9
2451.65	13816
2450.84	13925.2
2450.03	14182.3
2449.22	14097.1
2448.41	14307.9
2447.6	14139.5
2446.79	14276.2
2445.98	13987.6
2445.17	14256.9
2444.35	14070
2443.54	14243.7
2442.73	14380.3
2441.92	14061.1
2441.11	14296.3
2440.3	13946.3
2439.48	14412.4
2438.67	14062.5
2437.86	14186.8
2437.05	13827.8
2436.24	14204.4
2435.42	14214.7
2434.61	14105.1
2433.8	13977
2432.98	14042.7
2432.17	14108.4
2431.36	14091.1
2430.55	14049.2
2429.73	14102.6
2428.92	14159
2428.1	14258.4
2427.29	14047.5
2426.48	14285.2
2425.66	14197.2
2424.85	14348.8
2424.04	14045.9
2423.22	14157.5
2422.41	14204.7
2421.59	14408.4
2420.78	14090.3
2419.96	13971.7
2419.15	14236.7
2418.33	14277.7
2417.52	14349.3
2416.7	14218.5
2415.89	14041.8
2415.07	14306.6
2414.26	14439.5
2413.44	14314.9
2412.63	14334.3
2411.81	14366.1
2410.99	14492.7
2410.18	14254.8
2409.36	14274.3
2408.55	14434.7
2407.73	14463.3
2406.91	14308.2
2406.1	14220.5
2405.28	14460.3
2404.46	14397.1
2403.65	14275.8
2402.83	14319.7
2402.01	14360.5
2401.19	14444.2
2400.38	14497.2
2399.56	14550.3
2398.74	14529.9
2397.92	14298.6
2397.11	14336.3
2396.29	14505.5
2395.47	14301.8
2394.65	14400.7
2393.83	14346.7
2393.02	14243.9
2392.2	14162.5
2391.38	14447.6
2390.56	14488.4
2389.74	14584.1
2388.92	14621.7
2388.1	14430.5
2387.28	14465.1
2386.46	14475.3
2385.64	14314.6
2384.82	14745.8
2384.01	14435.7
2383.19	14506.9
2382.37	14535.4
2381.55	14362.6
2380.73	14702
2379.91	14553.7
2379.08	14682.7
2378.26	14839.1
2377.44	14958.9
2376.62	14372
2375.8	14613.7
2374.98	14538.5
2374.16	14822.7
2373.34	14787.2
2372.52	14696.9
2371.7	14606.6
2370.87	14650.2
2370.05	14739.4
2369.23	14509.2
2368.41	14519.4
2367.59	14593.4
2366.77	14725.2
2365.94	14790
2365.12	14398.8
2364.3	14874.1
2363.48	14628.8
2362.65	14295.6
2361.83	14837.5
2361.01	14756.4
2360.19	14751.3
2359.36	14703.7
2358.54	14750.3
2357.72	14681.4
2356.89	14849.4
2356.07	14895.9
2355.24	14924.2
2354.42	14776.5
2353.6	14774.4
2352.77	14781.5
2351.95	14630.8
2351.12	15086.7
2350.3	15148.3
2349.48	14949.1
2348.65	14962.2
2347.83	14951
2347	14700.4
2346.18	14968.1
2345.35	15078.1
2344.53	14985.1
2343.7	14970.9
2342.88	15199.1
2342.05	15142.4
2341.23	15851.9
2340.4	16567.3
2339.57	16380.3
2338.75	15936.1
2337.92	15349.8
2337.1	15341.6
2336.27	15269.9
2335.44	15222.4
2334.62	15344.3
2333.79	15076
2332.96	15161.6
2332.14	14935.8
2331.31	15118.1
2330.48	15046.5
2329.65	15198.6
2328.83	15386.8
2328	15058.4
2327.17	15023
2326.34	15286.8
2325.52	15106.5
2324.69	15179.8
2323.86	15156.6
2323.03	15287.3
2322.2	15173.5
2321.38	15228.7
2320.55	15124
2319.72	14995.2
2318.89	14881.5
2318.06	15111.7
2317.23	15212.1
2316.4	15143.7
2315.57	15328.5
2314.74	15251
2313.92	15221.8
2313.09	14981.6
2312.26	15084.9
2311.43	15140.1
2310.6	15258.5
2309.77	15298.5
2308.94	15191
2308.11	15318.4
2307.28	15427.6
2306.45	15407.4
2305.62	15339.1
2304.78	15264.7
2303.95	15280.6
2303.12	15191.3
2302.29	15420.8
2301.46	15457.7
2300.63	15470.6
2299.8	15459.5
2298.97	15231.8
2298.13	15419.1
2297.3	15383.9
2296.47	15294.6
2295.64	15244.4
2294.81	15392.5
2293.98	15333.3
2293.14	15400.2
2292.31	15560.3
2291.48	15528.1
2290.65	15504.9
2289.81	15538.8
2288.98	15359.5
2288.15	15276.3
2287.31	15460.2
2286.48	15605.1
2285.65	15593.9
2284.81	15531.8
2283.98	15508.6
2283.15	15479.5
2282.31	15543.3
2281.48	15619.1
2280.64	15527
2279.81	15524.8
2278.98	15456.7
2278.14	15721.2
2277.31	15539.3
2276.47	15872.6
2275.64	15729.7
2274.8	15670.6
2273.97	15515.7
2273.13	15848.8
2272.3	15610.1
2271.46	15694.8
2270.63	15767.4
2269.79	15507.9
2268.96	15568.5
2268.12	15799.7
2267.28	15674.9
2266.45	15885
2265.61	15849.9
2264.78	15808.8
2263.94	15624.3
2263.1	15655
2262.27	15769.4
2261.43	15537.1
2260.59	15836.7
2259.76	15667.2
2258.92	15572.4
2258.08	15779.3
2257.24	15905.5
2256.41	15810.7
2255.57	15963.7
2254.73	15657.1
2253.89	16033.9
2253.06	15969
2252.22	15686.4
2251.38	15818.4
2250.54	15831.1
2249.7	16007.8
2248.87	15662.7
2248.03	15854.3
2247.19	15867
2246.35	15715.8
2245.51	15981.8
2244.67	16134.5
2243.83	15786.7
2242.99	15805.3
2242.15	15981.8
2241.31	16095.7
2240.47	16078.6
2239.63	15859
2238.79	15910.4
2237.95	16295.1
2237.11	16096.4
2236.27	15936.5
2235.43	15925.3
2234.59	16018.3
2233.75	15962.5
2232.91	16067.4
2232.07	16100.8
2231.23	16339.4
2230.39	16203.3
2229.55	16108.9
2228.71	15984.9
2227.87	16324.3
2227.02	16081.4
2226.18	16209.9
2225.34	16174.9
2224.5	16312.3
2223.66	16075.4
2222.81	16070.2
2221.97	16142.2
2221.13	16407.1
2220.29	16096.1
2219.45	16206.6
2218.6	16337.9
2217.76	15991.5
2216.92	16294.8
2216.07	16277.7
2215.23	16005.6
2214.39	16362.1
2213.54	16104.9
2212.7	16161.9
2211.86	16358.2
2211.01	16246.3
2210.17	16039.6
2209.33	16425.4
2208.48	16115.1
2207.64	16234.3
2206.79	16386
2205.95	16481.4
2205.1	16337
2204.26	16536
2203.41	16249.6
2202.57	16327.2
2201.72	16387.1
2200.88	16441
2200.03	16598.4
2199.19	16259
2198.34	16679.5
2197.5	16325.4
2196.65	16710.3
2195.81	16601.6
2194.96	16324.5
2194.11	16529
2193.27	16579.9
2192.42	16229
2191.58	16203.1
2190.73	16658.6
2189.88	16691.7
2189.04	16718.9
2188.19	16583.7
2187.34	16513.5
2186.49	16567.3
2185.65	16700.7
2184.8	16524.3
2183.95	16563.3
2183.1	16726.2
2182.26	16859.5
2181.41	16662.5
2180.56	16568.8
2179.71	16693.3
2178.86	16561.2
2178.02	16756.4
2177.17	16880.7
2176.32	16748.8
2175.47	16496
2174.62	16617.4
2173.77	16850.7
2172.92	16980.9
2172.07	16745.9
2171.23	16725.9
2170.38	16573.5
2169.53	16747.7
2168.68	16633.6
2167.83	16775.4
2166.98	17070.2
2166.13	16761.9
2165.28	16839
2164.43	16833.7
2163.58	17001.8
2162.73	16840.7
2161.88	16967.7
2161.02	16730.2
2160.17	16954.2
2159.32	17154.5
2158.47	16849.5
2157.62	16926.5
2156.77	17103.3
2155.92	16710.4
2155.07	17086.7
2154.21	17198.8
2153.36	17149.5
2152.51	16900.6
2151.66	17238.6
2150.81	17004.4
2149.95	16864.2
2149.1	16982.1
2148.25	17187.9
2147.4	17179.6
2146.54	17101
2145.69	17004.8
2144.84	17222.3
2143.99	17269.7
2143.13	17021.1
2142.28	17094.9
2141.43	17329.8
2140.57	17271.7
2139.72	16973.6
2138.86	17275.7
2138.01	17138.6
2137.16	17388
2136.3	17411.9
2135.45	17146.1
2134.59	17345.6
2133.74	17150.1
2132.88	17302.7
2132.03	17195
2131.17	17254
2130.32	17558.6
2129.46	17231.6
2128.61	17176.6
2127.75	17560
2126.9	17183.5
2126.04	17394.4
2125.19	17318.9
2124.33	17468.4
2123.48	17346.2
2122.62	17501.5
2121.76	17262.5
2120.91	17914.1
2120.05	17736.4
2119.19	17290.3
2118.34	17746.1
2117.48	17378.9
2116.62	17528.1
2115.77	17572.4
2114.91	17447.4
2114.05	17558.7
2113.19	17725.4
2112.34	17580
2111.48	17504.7
2110.62	17464.4
2109.76	17587.2
2108.91	17608.1
2108.05	17561.9
2107.19	17609
2106.33	17746.3
2105.47	17525.4
2104.61	17397.8
2103.76	17674.8
2102.9	17628.7
2102.04	17812.5
2101.18	17719.8
2100.32	17734.8
2099.46	17860.3
2098.6	17558.2
2097.74	17625.5
2096.88	17623.1
2096.02	17757.3
2095.16	17824.6
2094.3	17868.6
2093.44	17587
2092.58	17796.7
2091.72	17628.6
2090.86	18067.8
2090	17565.6
2089.14	17781
2088.28	18060.2
2087.42	17964.7
2086.56	17892.5
2085.69	18133.9
2084.83	17835.3
2083.97	18018.5
2083.11	17969.6
2082.25	18077.3
2081.39	18057.4
2080.53	17935.9
2079.66	17855.1
2078.8	17977.3
2077.94	17960.3
2077.08	18070.8
2076.21	18381.3
2075.35	17825.2
2074.49	17837.2
2073.63	18162.1
2072.76	18171.2
2071.9	18223.6
2071.04	18142.9
2070.17	18154.8
2069.31	17819.4
2068.44	18144
2067.58	17817.3
2066.72	17878.4
2065.85	18223.2
2064.99	18148.3
2064.12	18090.8
2063.26	18172.1
2062.4	18383.6
2061.53	18002.2
2060.67	17858
2059.8	18031.9
2058.94	18087.1
2058.07	18099.1
2057.21	18004.1
2056.34	18146
2055.48	18270.5
2054.61	18094.7
2053.74	17944.9
2052.88	18046.3
2052.01	17861.9
2051.15	18278
2050.28	18119.6
2049.41	18093.9
2048.55	18180.8
2047.68	17889.8
2046.81	18077.7
2045.95	18190.5
2045.08	18219.7
2044.21	18061.4
2043.35	18263.6
2042.48	18315.8
2041.61	17935.7
2040.74	18330.8
2039.88	18236.1
2039.01	18368.9
2038.14	18035.1
2037.27	18202.5
2036.4	18346.8
2035.54	18407.6
2034.67	18200.6
2033.8	18318.9
2032.93	18204.1
2032.06	18227.5
2031.19	18596.1
2030.32	18423.7
2029.46	18455.7
2028.59	18858.6
2027.72	18499.4
2026.85	18238
2025.98	18649.5
2025.11	18391
2024.24	18431.5
2023.37	18216.3
2022.5	18595.9
2021.63	18317.5
2020.76	18757.3
2019.89	18151.5
2019.02	18553.9
2018.15	18290
2017.28	18304.7
2016.4	18549
2015.53	18316.7
2014.66	18434.7
2013.79	18328.8
2012.92	18710.7
2012.05	18676.5
2011.18	18668.2
2010.3	18639.7
2009.43	18381.9
2008.56	18456.8
2007.69	18703.5
2006.82	18709.5
2005.94	18706.9
2005.07	18552.4
2004.2	18475.3
2003.33	18627.4
2002.45	18590.4
2001.58	18759.6
2000.71	18616.7
1999.83	18854.6
1998.96	18731.7
1998.09	18485.8
1997.21	18517.6
1996.34	18821.1
1995.46	18638.2
1994.59	18707.1
1993.72	18650.2
1992.84	18950.7
1991.97	18610.6
1991.09	18679.5
1990.22	18928.4
1989.34	18902.9
1988.47	18694.5
1987.59	18749
1986.72	18432.1
1985.84	18692.3
1984.97	18758.3
1984.09	18938.4
1983.22	18964.3
1982.34	18479.1
1981.47	19021.7
1980.59	18822.1
1979.71	19059.2
1978.84	18508.7
1977.96	18908.4
1977.09	19011.3
1976.21	18726.2
1975.33	19034.4
1974.46	19140.1
1973.58	18997.7
1972.7	18835.4
1971.82	18924
1970.95	19206.3
1970.07	19081.1
1969.19	19055.6
1968.31	19007.4
1967.44	18907.9
1966.56	18970.7
1965.68	19224.3
1964.8	18945.5
1963.92	19011.1
1963.05	19199.1
1962.17	19111.1
1961.29	19042.9
1960.41	19023.2
1959.53	19091.6
1958.65	18699.3
1957.77	18762.1
1956.89	18807.8
1956.01	19166.2
1955.13	19203.3
1954.25	18876.6
1953.37	18871.1
1952.49	18959.4
1951.61	19010.7
1950.73	19314.8
1949.85	18886.1
1948.97	18977.1
1948.09	18909.2
1947.21	19167.7
1946.33	19255.8
1945.45	19204.9
1944.57	19261.7
1943.69	19043.4
1942.81	19040.7
1941.93	19287.7
1941.04	19205.5
1940.16	19219.9
1939.28	19001.7
1938.4	19262.6
1937.52	19316.6
1936.63	19146.7
1935.75	19044.8
1934.87	19200.8
1933.99	19161.3
1933.11	19045.3
1932.22	19195.6
1931.34	19399.6
1930.46	19215.6
1929.57	19558.3
1928.69	19012.1
1927.81	19411.3
1926.92	19400.1
1926.04	19321
1925.16	19408.8
1924.27	19510.7
1923.39	19157.3
1922.5	19711.6
1921.62	19313
1920.74	19505.4
1919.85	19231.3
1918.97	19389.7
1918.08	19338.9
1917.2	19039.5
1916.31	19440.8
1915.43	19288.4
1914.54	19285.7
1913.66	19240.6
1912.77	19108
1911.88	19737.7
1911	19257.9
1910.11	19218.5
1909.23	19469.8
1908.34	19300.6
1907.45	19083.5
1906.57	19275.4
1905.68	19357.3
1904.8	19430.7
1903.91	19481.5
1903.02	19281.5
1902.13	19602.9
1901.25	19211.2
1900.36	19741.1
1899.47	19727
1898.59	19490.4
1897.7	19442.6
1896.81	19572.2
1895.92	19634.3
1895.03	19490.7
1894.15	19476.7
1893.26	19459.9
1892.37	19541.6
1891.48	19609.2
1890.59	19564.2
1889.7	19589.6
1888.81	19648.7
1887.93	19702.2
1887.04	19603.8
1886.15	19513.9
1885.26	19592.7
1884.37	19786.7
1883.48	19769.8
1882.59	23414.2
1881.7	21174.6
1880.81	24233.5
1879.92	22696.5
1879.03	22690.5
1878.14	19946.9
1877.25	19447.2
1876.36	19770
1875.47	19680.2
1874.58	19885.1
1873.69	19859.9
1872.79	19388.6
1871.9	19599
1871.01	19523.4
1870.12	19545.8
1869.23	19792.6
1868.34	19672.1
1867.44	19574
1866.55	19885.2
1865.66	19700.2
1864.77	19644.2
1863.88	19879.6
1862.98	19913.2
1862.09	19818
1861.2	19708.8
1860.31	19644.4
1859.41	20042
1858.52	19958
1857.63	20184.6
1856.73	19994.3
1855.84	19686.5
1854.95	19854.4
1854.05	20156.5
1853.16	19636.2
1852.26	19675.4
1851.37	19616.7
1850.48	19574.8
1849.58	19756.5
1848.69	19804.1
1847.79	19703.5
1846.9	19988.5
1846	19996.8
1845.11	19697.9
1844.21	19952.1
1843.32	19566.7
1842.42	19859.9
1841.53	19667.3
1840.63	19784.5
1839.73	19873.9
1838.84	19859.9
1837.94	19862.7
1837.05	20088.6
1836.15	19737.1
1835.25	19795.7
1834.36	19603.3
1833.46	20055
1832.56	19873.8
1831.67	19862.6
1830.77	19968.5
1829.87	19948.9
1828.98	19921.1
1828.08	19862.5
1827.18	19918.2
1826.28	19854.1
1825.38	19965.5
1824.49	19954.3
1823.59	20007.2
1822.69	19879.1
1821.79	19976.5
1820.89	19650.9
1820	19976.4
1819.1	20037.6
1818.2	20121
1817.3	20104.3
1816.4	19765
1815.5	19784.4
1814.6	20031.8
1813.7	19706.6
1812.8	19992.8
1811.9	20065
1811	19812.1
1810.1	20098.3
1809.2	19898.2
1808.3	19895.4
1807.4	19992.6
1806.5	19981.4
1805.6	20000.8
1804.7	20042.4
1803.8	19995.2
1802.9	20045.1
1802	20389
1801.1	20192
1800.19	20166.9
1799.29	20153
1798.39	20161.2
1797.49	20100.2
1796.59	20305.2
1795.69	20216.4
1794.78	20005.8
1793.88	20130.4
1792.98	20052.7
1792.08	20135.8
1791.17	20393.3
1790.27	20293.5
1789.37	20501.1
1788.47	20448.3
1787.56	20323.6
1786.66	20298.6
1785.76	20309.6
1784.85	20417.4
1783.95	20096.4
1783.04	20265
1782.14	20251.1
1781.24	20378.2
1780.33	20250.9
1779.43	20203.8
1778.52	20283.9
1777.62	20272.8
1776.71	20322.4
1775.81	20239.4
1774.91	20112.2
1774	20396.7
1773.09	20578.8
1772.19	20181
1771.28	19976.6
1770.38	20341
1769.47	20247
1768.57	19979.2
1767.66	20180.6
1766.76	20277
1765.85	20555.6
1764.94	20354.1
1764.04	20345.7
1763.13	20158
1762.22	20436.4
1761.32	20712
1760.41	20301.1
1759.5	20350.6
1758.59	20661.9
1757.69	20317.3
1756.78	20493.5
1755.87	20708.2
1754.96	20413.3
1754.06	20570.2
1753.15	20685.6
1752.24	20421.2
1751.33	20578
1750.42	20162.2
1749.52	20197.9
1748.61	20197.8
1747.7	20541.6
1746.79	20392.9
1745.88	20332.2
1744.97	20323.9
1744.06	20540.9
1743.15	20362.1
1742.24	20524.1
1741.33	20364.6
1740.42	20238.1
1739.51	20227
1738.6	20655.4
1737.69	20366.8
1736.78	20663.3
1735.87	20528.5
1734.96	20407.6
1734.05	20676.5
1733.14	20272.8
1732.23	20602
1731.32	20525
1730.41	20516.6
1729.5	20549.4
1728.58	20272.2
1727.67	20603.9
1726.76	20466.6
1725.85	20406.2
1724.94	20285.4
1724.02	20296.2
1723.11	20496.2
1722.2	20556.3
1721.29	20526
1720.38	20572.4
1719.46	20421.6
1718.55	20374.9
1717.64	20621.1
1716.72	20434.8
1715.81	20358
1714.9	20571.3
1713.98	20532.8
1713.07	20371.2
1712.16	20579
1711.24	20745.7
1710.33	20573.2
1709.41	20570.3
1708.5	20381.4
1707.58	20791.4
1706.67	20539.7
1705.76	20550.4
1704.84	20544.8
1703.93	20380.7
1703.01	20454.3
1702.1	20781.9
1701.18	20328.3
1700.26	20724.1
1699.35	20669.3
1698.43	20393.4
1697.52	20497
1696.6	20521.4
1695.69	20592.1
1694.77	20518.3
1693.85	20406.2
1692.94	20523.4
1692.02	20485
1691.1	20730.3
1690.19	20462.9
1689.27	20440.9
1688.35	20285.3
1687.43	20473.2
1686.52	20906.3
1685.6	20658.2
1684.68	20453.6
1683.76	20761.3
1682.85	20298.1
1681.93	20469.5
1681.01	20665.3
1680.09	20158.8
1679.17	20400.9
1678.25	20613
1677.34	20721.6
1676.42	20245.3
1675.5	20383.9
1674.58	20633.9
1673.66	20541.3
1672.74	20557.4
1671.82	20557.2
1670.9	20214.5
1669.98	20605.7
1669.06	20738.7
1668.14	20537.4
1667.22	20463.9
1666.3	20433.8
1665.38	20406.4
1664.46	20425.3
1663.54	20574.4
1662.62	20571.5
1661.7	20468.2
1660.78	20744.8
1659.85	20589.9
1658.93	20462.2
1658.01	20429.4
1657.09	20760.2
1656.17	20024.9
1655.25	20776
1654.32	20623.9
1653.4	20368.9
1652.48	20460.9
1651.56	20149
1650.64	20493
1649.71	20541.6
1648.79	20460.1
1647.87	20324.5
1646.94	20486.8
1646.02	20665.3
1645.1	20648.8
1644.17	20719
1643.25	20358.8
1642.33	20596.8
1641.4	20488.3
1640.48	20366.3
1639.56	20636.7
1638.63	20452.5
1637.71	20598.4
1636.78	20541.4
1635.86	20614.2
1634.93	20613.9
1634.01	20497.5
1633.08	20627
1632.16	20510.6
1631.23	20594.1
1630.31	20888.4
1629.38	20558.6
1628.46	20574.6
1627.53	20801.2
1626.6	20730.7
1625.68	20366
1624.75	20878.7
1623.83	20921.6
1622.9	20616.4
1621.97	20780.8
1621.05	20675.3
1620.12	20386.5
1619.19	20796.2
1618.27	20545.2
1617.34	20725.6
1616.41	20870.9
1615.48	20692.8
1614.56	20854.2
1613.63	20638.4
1612.7	20446.8
1611.77	20791.5
1610.84	20699.6
1609.92	20804.4
1608.99	20952.2
1608.06	20793.1
1607.13	20674.4
1606.2	21010.6
1605.27	20647
1604.34	20797.4
1603.41	20934.4
1602.48	20961
1601.55	20993
1600.63	21162.1
1599.7	21231.7
1598.77	21148.1
1597.84	21268.7
1596.91	21279.1
1595.98	21762.5
1595.04	21673.4
1594.11	21804.7
1593.18	21922.5
1592.25	22026.8
1591.32	22085.4
1590.39	21988.3
1589.46	22310
1588.53	22234.4
1587.6	22505
1586.67	22136.8
1585.73	22157.8
1584.8	22173.5
1583.87	22492.2
1582.94	21818.5
1582.01	22496.5
1581.07	22241.3
1580.14	22117.5
1579.21	22151.9
1578.27	21899.5
1577.34	21869.6
1576.41	21842.3
1575.48	21697.3
1574.54	21680.8
1573.61	21535.8
1572.68	21562.1
1571.74	21128
1570.81	21084.8
1569.87	21432.5
1568.94	21135.1
1568.01	21062.5
1567.07	21474.2
1566.14	21112.7
1565.2	21246.1
1564.27	21432.9
1563.33	21221.3
1562.4	21148.8
1561.46	20784.9
1560.53	20934.3
1559.59	20952.7
1558.66	20698.5
1557.72	20599.4
1556.78	20708.7
1555.85	20518.7
1554.91	20660
1553.98	20625.1
1553.04	20627.5
1552.1	20440.3
1551.17	20394.7
1550.23	20290.4
1549.29	20637.1
1548.36	20554.1
1547.42	20572.5
1546.48	20393.5
1545.54	20484
1544.61	20758.4
1543.67	20576.8
1542.73	20294
1541.79	20128.5
1540.85	20450.8
1539.92	20226.7
1538.98	20354.4
1538.04	20431.4
1537.1	20212.7
1536.16	20353.6
1535.22	20324.1
1534.28	20571.5
1533.34	20419.5
1532.41	20336.7
1531.47	20458.9
1530.53	20695.5
1529.59	20280.2
1528.65	20436.9
1527.71	20311.6
1526.77	20335.3
1525.83	20319.1
1524.89	20342.8
1523.95	20417
1523	20252
1522.06	20039.2
1521.12	20280.8
1520.18	20370.9
1519.24	20378.6
1518.3	20229.6
1517.36	20301.1
1516.42	20205.3
1515.47	20348.4
1514.53	20472.9
1513.59	20339.9
1512.65	20483
1511.71	20076.8
1510.76	20418.8
1509.82	20389.4
1508.88	20285.7
1507.94	20243
1506.99	20104.9
1506.05	20009.3
1505.11	20258.2
1504.16	20220.9
1503.22	20278.9
1502.28	20140.9
1501.33	20053.3
1500.39	20294.1
1499.45	20047.6
1498.5	20264.5
1497.56	20049.8
1496.61	20097.2
1495.67	20205.5
1494.72	20144.4
1493.78	20242.1
1492.83	19871.5
1491.89	19963.9
1490.94	20061.5
1490	20264.9
1489.05	20235.6
1488.11	19841.5
1487.16	20028.9
1486.21	20129.2
1485.27	19867.3
1484.32	20239.7
1483.38	20070.4
1482.43	20426.7
1481.48	20109.5
1480.54	20117.2
1479.59	20404.8
1478.64	20238.2
1477.7	20098.1
1476.75	20132.2
1475.8	20105.5
1474.85	20107.9
1473.91	20025.9
1472.96	20046.8
1472.01	20178.5
1471.06	20304.8
1470.11	20288.7
1469.17	19951
1468.22	20259.2
1467.27	20454
1466.32	20040
1465.37	20224.2
1464.42	20303
1463.47	20163.1
1462.52	20297.2
1461.57	20030.9
1460.62	19854.3
1459.68	20288.5
1458.73	20293.5
1457.78	19840.6
1456.83	19985.1
1455.88	20158.5
1454.92	20105.6
1453.97	19947.6
1453.02	20092
1452.07	20107.6
1451.12	20399.1
1450.17	20130.7
1449.22	19993.8
1448.27	19980.4
1447.32	20166.8
1446.37	19874.9
1445.41	19885.2
1444.46	20042.6
1443.51	19987.2
1442.56	20273.2
1441.61	20052.4
1440.65	20301.5
1439.7	20114.9
1438.75	19736.7
1437.8	20187.9
1436.84	19864.9
1435.89	19833.2
1434.94	20048.1
1433.98	19929.8
1433.03	20105.3
1432.08	19932
1431.12	20031.4
1430.17	20018
1429.21	19981.1
1428.26	19994
1427.31	20203.3
1426.35	20064.2
1425.4	20009
1424.44	19919.7
1423.49	20071.3
1422.53	20000.4
1421.58	19997.5
1420.62	19814.1
1419.67	20004.9
1418.71	20075.3
1417.75	20143.1
1416.8	19912.6
1415.84	19907.2
1414.89	20071.7
1413.93	20149.9
1412.97	19877.7
1412.02	19712.8
1411.06	19827.6
1410.1	19777.7
1409.15	19793.2
1408.19	20075.1
1407.23	19774.5
1406.28	19910.1
1405.32	19982.9
1404.36	19708.6
1403.4	20042.5
1402.45	19676.8
1401.49	19982
1400.53	19749.5
1399.57	19728.4
1398.61	19850.8
1397.65	19761.9
1396.7	19889.4
1395.74	19662.4
1394.78	19659.5
1393.82	19583.7
1392.86	19971.9
1391.9	19661.5
1390.94	19768.2
1389.98	19853.9
1389.02	19861.5
1388.06	19798.7
1387.1	19926.1
1386.14	19972.7
1385.18	19881.4
1384.22	19745.8
1383.26	19615.4
1382.3	19547.5
1381.34	19976.7
1380.38	19482.1
1379.42	19986.5
1378.45	19635.2
1377.49	19822.2
1376.53	19632.2
1375.57	19668.4
1374.61	19527.8
1373.65	19454.8
1372.68	19628.7
1371.72	19696.1
1370.76	19524.4
1369.8	19628.1
1368.83	19568.1
1367.87	19427.7
1366.91	19645.6
1365.95	19562.3
1364.98	19297.4
1364.02	19642.4
1363.06	19574.7
1362.09	19260.6
1361.13	19685.8
1360.16	19338.1
1359.2	19511.6
1358.24	19371.4
1357.27	19392
1356.31	19518.8
1355.34	19617.1
1354.38	19622
1353.41	19616.6
1352.45	19274.5
1351.48	19263.9
1350.52	19385.5
1349.55	19336.1
1348.59	19462.8
1347.62	19454.8
1346.65	19382.1
1345.69	19356.1
1344.72	19234.3
1343.76	19487.7
1342.79	19342.6
1341.82	19280.3
1340.86	19241.3
1339.89	19161
1338.92	19429.7
1337.96	19204.6
1336.99	18997.7
1336.02	19692.7
1335.05	19183.5
1334.09	19224.6
1333.12	19250.3
1332.15	19405.1
1331.18	19213.8
1330.21	19275.6
1329.25	19148.9
1328.28	19009.3
1327.31	19177
1326.34	19210.3
1325.37	19282.4
1324.4	18957.2
1323.43	18949.3
1322.46	18874.4
1321.49	19397.7
1320.52	19144.8
1319.56	18693.5
1318.59	18904.8
1317.62	19074.7
1316.65	18829.8
1315.67	19077
1314.7	19056.2
1313.73	19056.1
1312.76	19112.6
1311.79	18970.8
1310.82	18988.7
1309.85	18991.1
1308.88	18936.9
1307.91	18841.5
1306.94	18936.6
1305.96	18823.2
1304.99	18763.9
1304.02	18699.5
1303.05	18858.9
1302.08	19007.9
1301.1	18804.6
1300.13	18907.3
1299.16	18809.5
1298.19	18927.6
1297.21	18660.2
1296.24	18976.1
1295.27	18690.8
1294.29	18811.4
1293.32	18880.6
1292.35	18780.3
1291.37	18608.2
1290.4	18836.5
1289.42	18713.2
1288.45	18628.4
1287.48	18792.5
1286.5	18930.9
1285.53	18699.9
1284.55	18563.8
1283.58	18643.2
1282.6	18732.9
1281.63	18491.8
1280.65	18848
1279.68	18486.4
1278.7	18758
1277.73	18517
1276.75	18673.2
1275.77	18698.7
1274.8	18803.6
1273.82	18501.2
1272.84	18703.4
1271.87	18539.5
1270.89	18636.6
1269.91	18372.9
1268.94	18782.2
1267.96	18370.2
1266.98	18434
1266.01	18372.6
1265.03	18198.6
1264.05	18543.7
1263.07	18643.3
1262.09	18344.1
1261.12	18510.2
1260.14	18441.1
1259.16	18443.5
1258.18	18338.7
1257.2	18611.9
1256.22	18300.2
1255.24	18205.7
1254.27	18111.1
1253.29	18366.4
1252.31	18317.8
1251.33	18162
1250.35	18368.7
1249.37	18381.3
1248.39	18325.1
1247.41	18317.4
1246.43	18294.3
1245.45	18312.1
1244.47	18393.6
1243.49	18245.7
1242.51	18130.9
1241.52	18370.4
1240.54	18082.3
1239.56	18439
1238.58	18382.8
1237.6	18395.5
1236.62	18130.5
1235.64	17840.2
1234.65	17985.3
1233.67	18199.1
1232.69	18033.5
1231.71	18392.3
1230.73	18148
1229.74	18313.3
1228.76	18000.3
1227.78	18109.6
1226.79	17911.2
1225.81	18295.1
1224.83	18071.3
1223.84	18063.6
1222.86	18030.5
1221.88	17900.8
1220.89	17936.4
1219.91	17903.3
1218.92	17966.8
1217.94	18065.8
1216.96	17870.2
1215.97	17816.8
1214.99	17761
1214	17895.5
1213.02	17875.1
1212.03	17847.2
1211.05	17694.9
1210.06	17517.3
1209.07	17867.4
1208.09	17580.8
1207.1	17890.1
1206.12	17743
1205.13	17743
1204.14	17745.5
1203.16	17699.9
1202.17	17699.9
1201.19	17679.6
1200.2	17542.8
1199.21	17649.2
1198.22	17623.8
1197.24	17616.2
1196.25	17808.6
1195.26	17677
1194.27	17555.5
1193.29	17441.6
1192.3	17568.1
1191.31	17413.8
1190.32	17391.1
1189.33	17461.9
1188.34	17406.3
1187.36	17568.1
1186.37	17348.2
1185.38	17305.2
1184.39	17527.7
1183.4	17221.9
1182.41	17429.1
1181.42	17323
1180.43	17070.5
1179.44	17441.8
1178.45	17295.4
1177.46	17388.8
1176.47	17315.6
1175.48	17096
1174.49	17202.1
1173.5	17290.5
1172.51	17030.6
1171.52	17141.7
1170.53	17167
1169.53	17406.6
1168.54	17048.5
1167.55	17409.1
1166.56	17363.8
1165.57	16968.1
1164.58	17081.6
1163.58	17293.3
1162.59	17326.1
1161.6	16988.5
1160.61	17132.2
1159.61	17157.4
1158.62	17031.5
1157.63	16830.2
1156.63	17132.3
1155.64	16890.8
1154.65	17092.2
1153.65	17150.1
1152.66	17162.7
1151.67	17084.8
1150.67	17147.7
1149.68	17042.1
1148.68	16707.8
1147.69	17032.2
1146.7	16946.8
1145.7	17147.9
1144.71	16843.9
1143.71	16952
1142.72	16959.6
1141.72	16987.3
1140.72	16836.7
1139.73	16894.5
1138.73	16766.5
1137.74	16839.4
1136.74	16877.2
1135.75	16927.4
1134.75	16679.1
1133.75	16872.4
1132.76	16960.2
1131.76	16654.3
1130.76	16797.3
1129.77	16804.9
1128.77	16742.4
1127.77	16765
1126.77	16592.2
1125.78	16830.3
1124.78	16660
1123.78	16497.3
1122.78	16577.6
1121.78	16735.5
1120.79	16597.8
1119.79	17056.1
1118.79	16853.4
1117.79	16713.3
1116.79	16593.2
1115.79	16665.9
1114.79	16583.4
1113.79	16573.5
1112.79	16463.6
1111.79	16491.2
1110.79	16456.3
1109.79	16574
1108.79	16456.6
1107.79	16491.7
1106.79	16661.8
1105.79	16466.9
1104.79	16399.6
1103.79	16407.2
1102.79	16604.7
1101.79	16554.8
1100.79	16559.9
1099.79	16442.7
1098.79	16133.3
1097.78	16532.8
1096.78	16580.3
1095.78	16592.9
1094.78	16468.2
1093.78	16670.4
1092.77	16593.2
1091.77	16251.6
1090.77	16413.8
1089.77	16409
1088.76	16468.9
1087.76	16451.6
1086.76	16466.6
1085.75	16302.3
1084.75	16339.8
1083.75	16347.4
1082.74	16439.7
1081.74	16656.4
1080.73	16497.2
1079.73	16225.9
1078.73	16450.1
1077.72	16333.2
1076.72	16500.1
1075.71	16373.3
1074.71	16229.1
1073.7	16515.3
1072.7	16366.2
1071.69	16075.4
1070.69	16331.6
1069.68	16411.3
1068.67	16279.7
1067.67	16505.9
1066.66	16247.6
1065.66	16334.7
1064.65	16439.2
1063.64	16243.1
1062.64	16359.9
1061.63	16238.4
1060.62	16345.2
1059.61	16392.5
1058.61	16524.2
1057.6	16328.2
1056.59	16343.2
1055.58	16139.9
1054.58	16435.2
1053.57	16326.2
1052.56	16594.1
1051.55	16361.2
1050.54	16252.2
1049.53	16148.2
1048.53	16232.6
1047.52	16158.4
1046.51	16128.8
1045.5	16309.8
1044.49	16171.2
1043.48	16040.1
1042.47	16456.2
1041.46	16040.4
1040.45	16179.2
1039.44	16216.4
1038.43	16172
1037.42	16352.8
1036.41	16130.2
1035.4	16182.3
1034.39	16063.7
1033.38	16353.2
1032.37	16130.8
1031.35	16081.4
1030.34	16066.8
1029.33	15901.3
1028.32	16020.1
1027.31	15963.4
1026.3	16092
1025.28	16136.6
1024.27	15919.4
1023.26	15914.7
1022.25	15964.2
1021.23	16231
1020.22	15722.6
1019.21	16016.5
1018.19	15967.3
1017.18	15730.6
